exposure,2000.0ms
wavelength
340,23
341,0
342,0
343,18
344,25
345,0
346,28
347,0
348,259
349,361
350,0
351,0
352,0
353,0
354,0
355,167
356,213
357,136
358,53
359,0
360,63
361,93
362,25
363,27
364,18
365,0
366,12
367,0
368,0
369,0
370,134
371,33
372,4
373,42
374,120
375,0
376,14
377,62
378,0
379,0
380,0
381,44
382,0
383,5
384,33
385,42
386,0
387,58
388,35
389,42
390,0
391,0
392,43
393,33
394,23
395,0
396,0
397,10
398,0
399,0
400,0
401,39
402,38
403,44
404,0
405,14
406,0
407,0
408,0
409,12
410,47
411,0
412,0
413,0
414,7
415,0
416,33
417,7
418,0
419,0
420,43
421,0
422,70
423,64
424,47
425,67
426,70
427,10
428,0
429,15
430,10
431,34
432,8
433,0
434,24
435,0
436,0
437,0
438,0
439,7
440,0
441,0
442,0
443,33
444,26
445,37
446,1
447,30
448,21
449,18
450,18
451,21
452,48
453,68
454,93
455,13
456,0
457,4
458,25
459,62
460,14
461,0
462,31
463,58
464,65
465,0
466,0
467,0
468,2
469,0
470,13
471,0
472,19
473,0
474,0
475,0
476,0
477,0
478,4
479,0
480,82
481,0
482,0
483,22
484,0
485,0
486,0
487,14
488,0
489,0
490,17
491,2
492,26
493,42
494,3
495,0
496,31
497,0
498,87
499,0
500,0
501,21
502,7
503,0
504,5
505,0
506,0
507,0
508,0
509,0
510,81
511,22
512,43
513,112
514,27
515,27
516,10
517,0
518,47
519,13
520,36
521,23
522,0
523,13
524,5
525,0
526,64
527,21
528,0
529,0
530,0
531,8
532,5
533,58
534,33
535,17
536,0
537,2
538,0
539,16
540,18
541,50
542,38
543,24
544,0
545,84
546,45
547,59
548,40
549,25
550,0
551,0
552,0
553,0
554,78
555,40
556,9
557,25
558,32
559,44
560,0
561,50
562,8
563,57
564,0
565,0
566,0
567,0
568,0
569,21
570,47
571,24
572,0
573,0
574,28
575,69
576,0
577,18
578,38
579,60
580,11
581,2
582,42
583,0
584,70
585,127
586,54
587,62
588,85
589,73
590,14
591,65
592,55
593,0
594,0
595,0
596,12
597,23
598,68
599,0
600,22
601,26
602,25
603,29
604,67
605,30
606,45
607,22
608,0
609,67
610,94
611,95
612,44
613,10
614,53
615,66
616,82
617,8
618,74
619,51
620,73
621,55
622,52
623,72
624,46
625,54
626,60
627,50
628,65
629,61
630,46
631,20
632,58
633,47
634,29
635,58
636,66
637,107
638,68
639,75
640,47
641,46
642,67
643,84
644,79
645,87
646,61
647,54
648,2
649,43
650,37
651,73
652,31
653,15
654,16
655,84
656,23
657,62
658,85
659,96
660,60
661,52
662,99
663,63
664,78
665,42
666,71
667,6
668,36
669,60
670,72
671,69
672,36
673,38
674,75
675,36
676,66
677,65
678,8
679,72
680,132
681,83
682,66
683,106
684,61
685,40
686,87
687,75
688,78
689,127
690,91
691,113
692,140
693,157
694,163
695,197
696,115
697,159
698,181
699,183
700,221
701,270
702,287
703,251
704,263
705,313
706,275
707,354
708,331
709,299
710,320
711,305
712,270
713,348
714,343
715,324
716,398
717,315
718,333
719,410
720,377
721,352
722,399
723,422
724,393
725,403
726,424
727,463
728,414
729,404
730,449
731,438
732,425
733,474
734,434
735,451
736,402
737,443
738,425
739,466
740,482
741,459
742,426
743,421
744,470
745,383
746,402
747,494
748,477
749,490
750,482
751,500
752,522
753,526
754,493
755,545
756,521
757,420
758,486
759,459
760,486
761,484
762,594
763,509
764,553
765,543
766,563
767,543
768,534
769,554
770,532
771,626
772,651
773,622
774,609
775,600
776,626
777,568
778,617
779,641
780,646
781,674
782,578
783,659
784,679
785,687
786,628
787,585
788,625
789,584
790,614
791,665
792,660
793,638
794,680
795,684
796,719
797,643
798,647
799,698
800,692
801,724
802,641
803,651
804,695
805,751
806,742
807,727
808,692
809,743
810,763
811,711
812,746
813,739
814,786
815,713
816,725
817,757
818,789
819,703
820,756
821,764
822,715
823,620
824,683
825,679
826,650
827,631
828,691
829,694
830,737
831,726
832,676
833,623
834,647
835,667
836,672
837,702
838,696
839,730
840,659
841,742
842,662
843,725
844,566
845,626
846,692
847,717
848,673
849,644
850,693
851,726
852,699
853,736
854,736
855,747
856,738
857,691
858,684
859,650
860,669
861,743
862,680
863,674
864,752
865,700
866,724
867,724
868,716
869,742
870,766
871,674
872,603
873,633
874,643
875,720
876,710
877,726
878,656
879,662
880,695
881,594
882,669
883,716
884,667
885,723
886,629
887,640
888,626
889,716
890,680
891,725
892,746
893,705
894,656
895,638
896,763
897,589
898,732
899,725
900,586
901,737
902,643
903,691
904,670
905,658
906,590
907,638
908,777
909,589
910,793
911,685
912,698
913,730
914,712
915,665
916,741
917,690
918,788
919,637
920,643
921,741
922,808
923,820
924,692
925,881
926,814
927,737
928,739
929,715
930,667
931,726
932,630
933,777
934,870
935,894
936,810
937,933
938,960
939,819
940,682
941,864
942,717
943,826
944,830
945,845
946,754
947,774
948,908
949,919
950,959
951,831
952,885
953,751
954,862
955,1047
956,1014
957,831
958,807
959,1004
960,926
961,927
962,1000
963,1029
964,1030
965,1027
966,739
967,775
968,781
969,864
970,962
971,1046
972,1012
973,1232
974,903
975,885
976,908
977,852
978,1064
979,1096
980,948
981,948
982,1131
983,1088
984,927
985,1010
986,981
987,886
988,1054
989,1009
990,1235
991,1260
992,1295
993,1269
994,1443
995,1085
996,1069
997,1096
998,1265
999,1135
1000,1285
