exposure,2000.0ms
wavelength
340,30
341,0
342,0
343,0
344,22
345,82
346,64
347,0
348,121
349,76
350,0
351,0
352,0
353,0
354,0
355,76
356,150
357,0
358,2
359,0
360,29
361,0
362,0
363,0
364,36
365,0
366,53
367,41
368,0
369,0
370,98
371,0
372,0
373,71
374,74
375,0
376,60
377,88
378,34
379,26
380,0
381,0
382,15
383,30
384,61
385,48
386,0
387,42
388,54
389,25
390,0
391,2
392,41
393,23
394,55
395,31
396,23
397,45
398,0
399,0
400,0
401,28
402,34
403,49
404,8
405,0
406,0
407,0
408,12
409,3
410,29
411,0
412,0
413,0
414,0
415,0
416,44
417,25
418,16
419,0
420,40
421,0
422,33
423,45
424,60
425,20
426,57
427,35
428,0
429,41
430,28
431,44
432,0
433,0
434,0
435,0
436,0
437,0
438,0
439,28
440,16
441,0
442,24
443,33
444,36
445,70
446,8
447,6
448,18
449,43
450,20
451,17
452,61
453,89
454,84
455,17
456,0
457,0
458,45
459,66
460,0
461,0
462,48
463,47
464,79
465,36
466,3
467,0
468,23
469,0
470,39
471,35
472,49
473,0
474,0
475,0
476,0
477,6
478,0
479,0
480,73
481,29
482,10
483,37
484,0
485,46
486,43
487,26
488,0
489,0
490,28
491,18
492,31
493,62
494,47
495,0
496,51
497,7
498,69
499,37
500,25
501,55
502,17
503,0
504,36
505,34
506,18
507,0
508,52
509,27
510,81
511,47
512,45
513,106
514,53
515,19
516,30
517,43
518,62
519,46
520,35
521,50
522,0
523,50
524,28
525,0
526,62
527,12
528,24
529,29
530,6
531,29
532,43
533,67
534,75
535,61
536,13
537,13
538,33
539,64
540,60
541,73
542,44
543,59
544,50
545,96
546,78
547,53
548,39
549,39
550,40
551,10
552,32
553,38
554,55
555,33
556,55
557,34
558,73
559,63
560,6
561,47
562,56
563,54
564,18
565,28
566,32
567,46
568,25
569,34
570,68
571,60
572,7
573,32
574,25
575,101
576,30
577,47
578,49
579,58
580,47
581,34
582,45
583,1
584,63
585,131
586,106
587,62
588,75
589,62
590,32
591,43
592,32
593,5
594,19
595,43
596,47
597,33
598,47
599,16
600,70
601,32
602,50
603,26
604,41
605,8
606,51
607,46
608,12
609,55
610,88
611,78
612,64
613,12
614,46
615,67
616,57
617,20
618,70
619,46
620,47
621,56
622,28
623,44
624,31
625,12
626,48
627,44
628,57
629,74
630,50
631,42
632,58
633,39
634,36
635,49
636,63
637,87
638,54
639,76
640,34
641,44
642,55
643,75
644,75
645,78
646,42
647,52
648,29
649,50
650,28
651,74
652,26
653,19
654,55
655,81
656,50
657,106
658,74
659,88
660,41
661,53
662,81
663,52
664,82
665,45
666,81
667,39
668,46
669,37
670,65
671,64
672,49
673,58
674,71
675,57
676,68
677,80
678,16
679,90
680,113
681,67
682,67
683,107
684,44
685,41
686,58
687,66
688,52
689,93
690,37
691,56
692,92
693,132
694,101
695,136
696,68
697,122
698,135
699,150
700,197
701,218
702,249
703,286
704,322
705,403
706,423
707,511
708,517
709,559
710,611
711,638
712,693
713,772
714,846
715,904
716,1006
717,996
718,1052
719,1185
720,1224
721,1263
722,1366
723,1443
724,1484
725,1587
726,1632
727,1702
728,1739
729,1772
730,1831
731,1870
732,1937
733,1989
734,2021
735,2061
736,2064
737,2130
738,2140
739,2203
740,2239
741,2225
742,2242
743,2289
744,2326
745,2336
746,2344
747,2384
748,2439
749,2498
750,2480
751,2499
752,2488
753,2459
754,2523
755,2554
756,2564
757,2518
758,2546
759,2535
760,2575
761,2586
762,2652
763,2646
764,2689
765,2679
766,2764
767,2738
768,2723
769,2787
770,2736
771,2793
772,2835
773,2845
774,2756
775,2755
776,2768
777,2750
778,2785
779,2729
780,2770
781,2803
782,2743
783,2753
784,2763
785,2749
786,2744
787,2731
788,2685
789,2695
790,2722
791,2706
792,2806
793,2781
794,2730
795,2766
796,2806
797,2733
798,2789
799,2841
800,2778
801,2834
802,2805
803,2833
804,2857
805,2912
806,2867
807,2824
808,2838
809,2873
810,2878
811,2819
812,2831
813,2781
814,2835
815,2774
816,2759
817,2726
818,2707
819,2679
820,2708
821,2654
822,2694
823,2566
824,2566
825,2560
826,2459
827,2391
828,2446
829,2430
830,2422
831,2405
832,2295
833,2267
834,2284
835,2241
836,2238
837,2274
838,2205
839,2238
840,2177
841,2196
842,2117
843,2171
844,2038
845,2048
846,2079
847,2107
848,2052
849,2062
850,1981
851,1966
852,1988
853,2026
854,1953
855,1933
856,1919
857,1820
858,1811
859,1797
860,1759
861,1808
862,1736
863,1684
864,1750
865,1659
866,1651
867,1627
868,1581
869,1495
870,1508
871,1391
872,1259
873,1299
874,1339
875,1378
876,1351
877,1295
878,1213
879,1236
880,1151
881,1156
882,1199
883,1153
884,1080
885,1054
886,1029
887,1071
888,993
889,1028
890,961
891,976
892,961
893,998
894,889
895,805
896,896
897,798
898,855
899,834
900,743
901,848
902,793
903,755
904,733
905,786
906,725
907,668
908,796
909,686
910,819
911,739
912,791
913,774
914,785
915,715
916,736
917,744
918,884
919,730
920,758
921,843
922,794
923,823
924,681
925,850
926,892
927,811
928,813
929,730
930,812
931,826
932,728
933,847
934,881
935,815
936,864
937,960
938,938
939,880
940,679
941,805
942,687
943,735
944,715
945,750
946,594
947,779
948,777
949,657
950,732
951,625
952,622
953,639
954,724
955,718
956,624
957,549
958,503
959,710
960,572
961,575
962,609
963,690
964,742
965,620
966,488
967,442
968,495
969,508
970,557
971,605
972,501
973,674
974,521
975,521
976,483
977,444
978,571
979,617
980,570
981,588
982,734
983,672
984,551
985,633
986,665
987,508
988,584
989,558
990,710
991,750
992,716
993,720
994,920
995,725
996,631
997,661
998,806
999,749
1000,796
