exposure,2000.0ms
wavelength
340,91
341,69
342,0
343,11
344,55
345,65
346,178
347,71
348,232
349,407
350,1
351,39
352,0
353,104
354,94
355,179
356,266
357,93
358,147
359,65
360,132
361,115
362,0
363,0
364,24
365,9
366,80
367,95
368,59
369,57
370,162
371,66
372,73
373,105
374,74
375,48
376,89
377,121
378,80
379,73
380,27
381,62
382,32
383,73
384,112
385,90
386,0
387,99
388,91
389,77
390,0
391,33
392,88
393,79
394,82
395,54
396,32
397,58
398,18
399,33
400,3
401,45
402,75
403,79
404,58
405,38
406,0
407,0
408,18
409,21
410,71
411,0
412,0
413,31
414,12
415,4
416,84
417,52
418,54
419,43
420,56
421,18
422,83
423,90
424,74
425,83
426,90
427,40
428,2
429,65
430,40
431,71
432,46
433,43
434,53
435,26
436,0
437,73
438,31
439,48
440,37
441,17
442,20
443,43
444,34
445,107
446,55
447,56
448,49
449,38
450,42
451,93
452,114
453,121
454,103
455,46
456,22
457,55
458,78
459,120
460,28
461,12
462,74
463,33
464,63
465,36
466,12
467,0
468,33
469,0
470,72
471,50
472,54
473,49
474,31
475,23
476,16
477,71
478,22
479,34
480,76
481,75
482,57
483,74
484,0
485,46
486,36
487,60
488,3
489,0
490,50
491,52
492,73
493,71
494,81
495,32
496,69
497,39
498,80
499,19
500,61
501,77
502,74
503,24
504,60
505,75
506,67
507,21
508,63
509,63
510,96
511,75
512,102
513,123
514,44
515,30
516,65
517,54
518,77
519,81
520,46
521,79
522,18
523,73
524,57
525,41
526,90
527,57
528,39
529,55
530,87
531,93
532,91
533,102
534,80
535,72
536,67
537,63
538,82
539,111
540,100
541,101
542,90
543,118
544,86
545,152
546,135
547,149
548,123
549,99
550,100
551,63
552,93
553,89
554,125
555,111
556,114
557,115
558,112
559,99
560,57
561,106
562,108
563,97
564,66
565,55
566,64
567,111
568,68
569,51
570,86
571,91
572,45
573,58
574,72
575,115
576,66
577,102
578,109
579,107
580,83
581,92
582,86
583,24
584,103
585,161
586,123
587,121
588,121
589,108
590,80
591,118
592,88
593,40
594,74
595,78
596,61
597,114
598,118
599,52
600,76
601,73
602,110
603,83
604,99
605,71
606,77
607,80
608,74
609,116
610,110
611,130
612,118
613,78
614,115
615,131
616,138
617,91
618,146
619,100
620,109
621,100
622,86
623,94
624,85
625,76
626,70
627,75
628,92
629,90
630,89
631,78
632,94
633,78
634,65
635,102
636,117
637,115
638,87
639,80
640,100
641,83
642,109
643,106
644,98
645,122
646,88
647,102
648,73
649,74
650,79
651,94
652,60
653,66
654,59
655,100
656,66
657,117
658,121
659,98
660,77
661,72
662,100
663,109
664,101
665,66
666,111
667,78
668,84
669,85
670,111
671,110
672,77
673,76
674,110
675,111
676,102
677,106
678,50
679,115
680,142
681,126
682,93
683,130
684,91
685,81
686,129
687,110
688,122
689,138
690,74
691,145
692,151
693,148
694,143
695,189
696,146
697,219
698,236
699,279
700,343
701,383
702,472
703,513
704,576
705,682
706,757
707,878
708,905
709,999
710,1126
711,1140
712,1240
713,1402
714,1524
715,1596
716,1736
717,1806
718,1906
719,2067
720,2149
721,2233
722,2374
723,2517
724,2595
725,2681
726,2773
727,2896
728,2971
729,3068
730,3191
731,3255
732,3315
733,3403
734,3473
735,3526
736,3579
737,3629
738,3651
739,3781
740,3814
741,3843
742,3885
743,3938
744,3982
745,4001
746,4002
747,4095
748,4125
749,4167
750,4178
751,4236
752,4267
753,4272
754,4287
755,4313
756,4314
757,4272
758,4297
759,4306
760,4346
761,4379
762,4494
763,4498
764,4565
765,4550
766,4594
767,4651
768,4627
769,4658
770,4644
771,4693
772,4731
773,4706
774,4639
775,4643
776,4626
777,4598
778,4638
779,4604
780,4628
781,4713
782,4580
783,4583
784,4643
785,4608
786,4577
787,4532
788,4484
789,4513
790,4506
791,4532
792,4603
793,4598
794,4599
795,4642
796,4688
797,4579
798,4573
799,4650
800,4664
801,4717
802,4663
803,4710
804,4728
805,4808
806,4769
807,4747
808,4696
809,4676
810,4691
811,4678
812,4608
813,4599
814,4651
815,4518
816,4454
817,4465
818,4432
819,4355
820,4338
821,4344
822,4312
823,4204
824,4188
825,4159
826,4019
827,4001
828,4038
829,3957
830,3856
831,3853
832,3741
833,3701
834,3677
835,3618
836,3606
837,3588
838,3488
839,3523
840,3461
841,3509
842,3455
843,3460
844,3303
845,3344
846,3378
847,3361
848,3314
849,3256
850,3197
851,3197
852,3172
853,3160
854,3134
855,3128
856,3062
857,2940
858,2934
859,2911
860,2870
861,2836
862,2742
863,2692
864,2706
865,2618
866,2563
867,2511
868,2421
869,2369
870,2343
871,2206
872,2085
873,2087
874,2071
875,2077
876,2039
877,1984
878,1933
879,1913
880,1864
881,1773
882,1829
883,1799
884,1702
885,1726
886,1651
887,1617
888,1464
889,1475
890,1465
891,1447
892,1405
893,1379
894,1268
895,1253
896,1321
897,1221
898,1268
899,1199
900,1093
901,1150
902,1132
903,1141
904,1094
905,1143
906,1066
907,1042
908,1148
909,1070
910,1193
911,1101
912,1082
913,1153
914,1193
915,1042
916,1082
917,1086
918,1253
919,1129
920,1040
921,1150
922,1150
923,1183
924,1046
925,1187
926,1251
927,1175
928,1144
929,1099
930,1083
931,1121
932,1039
933,1159
934,1192
935,1151
936,1089
937,1179
938,1228
939,1129
940,915
941,1084
942,999
943,973
944,982
945,952
946,873
947,986
948,1037
949,935
950,944
951,823
952,887
953,811
954,853
955,800
956,838
957,680
958,580
959,812
960,767
961,728
962,683
963,707
964,805
965,653
966,571
967,501
968,578
969,652
970,689
971,692
972,649
973,761
974,604
975,540
976,575
977,547
978,671
979,637
980,556
981,654
982,821
983,785
984,626
985,677
986,693
987,607
988,694
989,710
990,836
991,794
992,770
993,784
994,948
995,650
996,618
997,703
998,787
999,770
1000,808
