exposure,2000.0ms
wavelength
340,3
341,9
342,0
343,0
344,33
345,56
346,106
347,0
348,128
349,216
350,0
351,73
352,20
353,0
354,30
355,157
356,226
357,124
358,119
359,0
360,73
361,38
362,18
363,0
364,0
365,0
366,24
367,0
368,0
369,0
370,150
371,61
372,30
373,11
374,33
375,0
376,58
377,95
378,41
379,18
380,17
381,12
382,0
383,45
384,59
385,42
386,0
387,36
388,53
389,17
390,0
391,16
392,41
393,50
394,35
395,18
396,12
397,22
398,20
399,7
400,0
401,37
402,41
403,54
404,28
405,15
406,0
407,0
408,21
409,43
410,48
411,0
412,0
413,8
414,22
415,11
416,37
417,11
418,0
419,13
420,46
421,14
422,25
423,51
424,64
425,48
426,53
427,28
428,0
429,36
430,49
431,68
432,58
433,0
434,0
435,0
436,0
437,0
438,0
439,44
440,16
441,3
442,14
443,48
444,41
445,62
446,30
447,23
448,35
449,44
450,57
451,62
452,71
453,92
454,80
455,61
456,0
457,15
458,32
459,68
460,38
461,41
462,60
463,38
464,56
465,24
466,22
467,0
468,29
469,37
470,33
471,21
472,66
473,49
474,31
475,17
476,20
477,31
478,21
479,17
480,90
481,39
482,27
483,31
484,14
485,51
486,19
487,44
488,0
489,0
490,23
491,10
492,47
493,70
494,33
495,1
496,45
497,28
498,59
499,0
500,49
501,52
502,56
503,31
504,43
505,48
506,33
507,0
508,31
509,23
510,48
511,60
512,55
513,104
514,53
515,15
516,25
517,40
518,63
519,58
520,54
521,83
522,0
523,31
524,10
525,0
526,40
527,34
528,42
529,49
530,18
531,56
532,30
533,55
534,46
535,50
536,24
537,24
538,23
539,41
540,47
541,84
542,71
543,62
544,48
545,114
546,71
547,70
548,76
549,51
550,45
551,38
552,31
553,39
554,68
555,85
556,82
557,75
558,76
559,58
560,17
561,59
562,71
563,71
564,23
565,23
566,17
567,35
568,19
569,33
570,56
571,51
572,0
573,28
574,28
575,70
576,38
577,49
578,56
579,61
580,48
581,53
582,70
583,6
584,50
585,120
586,109
587,77
588,81
589,80
590,26
591,60
592,44
593,20
594,26
595,29
596,49
597,55
598,58
599,34
600,38
601,20
602,46
603,39
604,73
605,37
606,52
607,51
608,18
609,64
610,67
611,82
612,73
613,32
614,66
615,82
616,83
617,27
618,87
619,50
620,57
621,59
622,53
623,65
624,59
625,62
626,40
627,20
628,43
629,55
630,28
631,28
632,55
633,40
634,46
635,47
636,68
637,87
638,63
639,76
640,48
641,51
642,72
643,78
644,47
645,66
646,37
647,49
648,25
649,40
650,42
651,59
652,15
653,10
654,32
655,57
656,59
657,89
658,64
659,76
660,37
661,39
662,72
663,61
664,53
665,28
666,66
667,56
668,54
669,59
670,71
671,51
672,48
673,46
674,60
675,58
676,49
677,60
678,29
679,77
680,89
681,57
682,40
683,89
684,41
685,27
686,65
687,71
688,65
689,75
690,45
691,74
692,91
693,101
694,72
695,90
696,84
697,132
698,127
699,161
700,205
701,235
702,270
703,301
704,327
705,386
706,438
707,510
708,524
709,559
710,603
711,626
712,699
713,782
714,845
715,905
716,990
717,1002
718,1051
719,1166
720,1203
721,1242
722,1334
723,1408
724,1461
725,1547
726,1574
727,1637
728,1684
729,1742
730,1801
731,1854
732,1890
733,1948
734,1981
735,1999
736,2039
737,2090
738,2099
739,2133
740,2180
741,2194
742,2195
743,2245
744,2261
745,2267
746,2274
747,2320
748,2346
749,2414
750,2379
751,2423
752,2478
753,2464
754,2461
755,2475
756,2485
757,2450
758,2470
759,2484
760,2526
761,2536
762,2626
763,2608
764,2625
765,2619
766,2663
767,2659
768,2662
769,2704
770,2674
771,2697
772,2762
773,2711
774,2699
775,2697
776,2680
777,2677
778,2686
779,2642
780,2691
781,2714
782,2663
783,2664
784,2701
785,2690
786,2667
787,2632
788,2617
789,2644
790,2685
791,2684
792,2740
793,2678
794,2639
795,2661
796,2729
797,2663
798,2728
799,2740
800,2700
801,2740
802,2708
803,2729
804,2779
805,2816
806,2782
807,2764
808,2794
809,2782
810,2792
811,2757
812,2703
813,2712
814,2772
815,2675
816,2655
817,2617
818,2631
819,2575
820,2590
821,2551
822,2547
823,2484
824,2428
825,2470
826,2375
827,2347
828,2349
829,2344
830,2301
831,2312
832,2208
833,2196
834,2214
835,2173
836,2159
837,2149
838,2083
839,2093
840,2077
841,2098
842,2064
843,2061
844,1954
845,1987
846,2005
847,2034
848,1945
849,1937
850,1916
851,1914
852,1920
853,1946
854,1880
855,1846
856,1838
857,1798
858,1738
859,1686
860,1695
861,1704
862,1655
863,1581
864,1609
865,1546
866,1524
867,1520
868,1467
869,1446
870,1418
871,1329
872,1220
873,1244
874,1233
875,1269
876,1225
877,1186
878,1137
879,1160
880,1095
881,1072
882,1088
883,1062
884,1058
885,1034
886,968
887,963
888,885
889,920
890,854
891,862
892,837
893,857
894,787
895,742
896,802
897,708
898,792
899,779
900,659
901,690
902,714
903,652
904,649
905,709
906,688
907,620
908,687
909,589
910,685
911,643
912,645
913,623
914,651
915,630
916,667
917,599
918,719
919,603
920,595
921,716
922,706
923,708
924,628
925,704
926,743
927,688
928,668
929,652
930,669
931,729
932,610
933,681
934,726
935,731
936,696
937,731
938,793
939,697
940,542
941,634
942,563
943,543
944,632
945,608
946,529
947,599
948,573
949,578
950,592
951,467
952,476
953,478
954,470
955,489
956,505
957,436
958,411
959,600
960,490
961,497
962,497
963,440
964,469
965,415
966,385
967,306
968,336
969,342
970,448
971,442
972,447
973,539
974,389
975,313
976,375
977,308
978,404
979,350
980,337
981,459
982,540
983,419
984,364
985,464
986,429
987,379
988,453
989,398
990,528
991,511
992,489
993,532
994,621
995,484
996,388
997,410
998,511
999,476
1000,567
