exposure,2000.0ms
wavelength
340,62
341,71
342,0
343,14
344,50
345,0
346,91
347,53
348,160
349,206
350,0
351,0
352,0
353,38
354,1
355,96
356,215
357,103
358,58
359,0
360,86
361,73
362,0
363,16
364,67
365,62
366,146
367,50
368,0
369,0
370,118
371,52
372,0
373,45
374,75
375,0
376,50
377,93
378,18
379,76
380,0
381,0
382,6
383,50
384,58
385,89
386,0
387,23
388,40
389,33
390,0
391,13
392,64
393,55
394,63
395,44
396,20
397,34
398,11
399,0
400,0
401,47
402,31
403,43
404,0
405,27
406,0
407,0
408,0
409,14
410,32
411,0
412,0
413,13
414,17
415,0
416,28
417,16
418,22
419,22
420,35
421,0
422,51
423,48
424,55
425,57
426,59
427,27
428,0
429,19
430,43
431,57
432,27
433,4
434,15
435,0
436,0
437,11
438,0
439,20
440,21
441,23
442,5
443,40
444,16
445,50
446,12
447,33
448,21
449,36
450,37
451,46
452,68
453,103
454,82
455,30
456,0
457,48
458,55
459,63
460,1
461,5
462,37
463,54
464,66
465,19
466,31
467,0
468,6
469,0
470,19
471,8
472,38
473,8
474,0
475,0
476,0
477,3
478,0
479,0
480,69
481,0
482,0
483,18
484,13
485,49
486,38
487,24
488,0
489,0
490,23
491,12
492,20
493,55
494,27
495,4
496,23
497,30
498,86
499,0
500,0
501,53
502,56
503,10
504,28
505,50
506,27
507,0
508,44
509,36
510,56
511,39
512,37
513,75
514,47
515,33
516,12
517,24
518,56
519,49
520,48
521,63
522,27
523,68
524,52
525,36
526,78
527,61
528,37
529,54
530,40
531,59
532,65
533,76
534,90
535,92
536,62
537,61
538,38
539,78
540,86
541,127
542,115
543,109
544,112
545,162
546,150
547,145
548,137
549,110
550,74
551,59
552,58
553,78
554,104
555,94
556,108
557,112
558,98
559,99
560,59
561,80
562,93
563,93
564,63
565,44
566,44
567,86
568,80
569,87
570,87
571,87
572,54
573,67
574,65
575,134
576,68
577,102
578,96
579,91
580,95
581,95
582,110
583,62
584,93
585,174
586,129
587,118
588,125
589,108
590,80
591,105
592,75
593,40
594,50
595,68
596,97
597,86
598,102
599,43
600,91
601,86
602,116
603,98
604,106
605,58
606,105
607,96
608,69
609,94
610,120
611,129
612,120
613,90
614,113
615,126
616,120
617,67
618,135
619,105
620,124
621,110
622,88
623,103
624,87
625,89
626,77
627,72
628,106
629,100
630,90
631,72
632,92
633,72
634,85
635,131
636,112
637,137
638,112
639,108
640,98
641,89
642,100
643,101
644,115
645,96
646,81
647,76
648,45
649,49
650,86
651,91
652,74
653,58
654,77
655,94
656,55
657,133
658,118
659,118
660,77
661,82
662,109
663,84
664,89
665,66
666,111
667,84
668,69
669,82
670,92
671,87
672,75
673,87
674,89
675,88
676,87
677,88
678,47
679,90
680,127
681,93
682,59
683,104
684,60
685,75
686,105
687,112
688,92
689,117
690,87
691,132
692,139
693,152
694,155
695,178
696,125
697,187
698,211
699,253
700,294
701,312
702,367
703,386
704,402
705,481
706,518
707,605
708,588
709,616
710,654
711,672
712,696
713,797
714,844
715,867
716,932
717,949
718,993
719,1065
720,1094
721,1135
722,1201
723,1249
724,1263
725,1317
726,1362
727,1410
728,1409
729,1494
730,1514
731,1549
732,1576
733,1608
734,1640
735,1657
736,1684
737,1704
738,1723
739,1761
740,1784
741,1768
742,1793
743,1807
744,1821
745,1845
746,1844
747,1864
748,1876
749,1936
750,1922
751,1928
752,1954
753,1926
754,1937
755,1986
756,1985
757,1942
758,1951
759,1942
760,1981
761,1981
762,2050
763,2030
764,2035
765,2034
766,2076
767,2059
768,2039
769,2063
770,2068
771,2058
772,2145
773,2105
774,2088
775,2028
776,2045
777,2051
778,2097
779,2055
780,2071
781,2101
782,2020
783,2025
784,2047
785,2015
786,2014
787,1977
788,1964
789,1938
790,1980
791,1956
792,1990
793,1997
794,1984
795,2023
796,2058
797,1979
798,1977
799,1988
800,1967
801,1977
802,1964
803,1972
804,2032
805,2074
806,1992
807,1996
808,2000
809,1988
810,2030
811,1977
812,1970
813,1977
814,2006
815,1922
816,1932
817,1938
818,1947
819,1922
820,1917
821,1905
822,1919
823,1816
824,1806
825,1842
826,1747
827,1744
828,1760
829,1776
830,1777
831,1759
832,1723
833,1695
834,1726
835,1724
836,1703
837,1694
838,1658
839,1665
840,1647
841,1686
842,1684
843,1733
844,1548
845,1565
846,1633
847,1636
848,1555
849,1587
850,1563
851,1555
852,1570
853,1589
854,1516
855,1537
856,1528
857,1499
858,1449
859,1457
860,1400
861,1457
862,1378
863,1371
864,1393
865,1311
866,1320
867,1287
868,1246
869,1221
870,1228
871,1116
872,1037
873,1075
874,1088
875,1117
876,1087
877,1074
878,989
879,1034
880,958
881,917
882,973
883,953
884,920
885,916
886,876
887,895
888,801
889,815
890,791
891,823
892,766
893,780
894,714
895,680
896,725
897,673
898,789
899,731
900,635
901,715
902,646
903,624
904,626
905,667
906,609
907,581
908,742
909,599
910,744
911,703
912,676
913,674
914,683
915,655
916,702
917,645
918,779
919,684
920,590
921,777
922,742
923,749
924,673
925,790
926,804
927,738
928,750
929,709
930,767
931,793
932,687
933,849
934,878
935,857
936,854
937,916
938,957
939,888
940,716
941,784
942,780
943,818
944,842
945,825
946,747
947,781
948,782
949,793
950,849
951,821
952,846
953,727
954,825
955,875
956,829
957,745
958,614
959,856
960,799
961,760
962,761
963,769
964,840
965,668
966,616
967,650
968,607
969,629
970,696
971,695
972,698
973,812
974,686
975,620
976,653
977,580
978,706
979,677
980,640
981,768
982,877
983,779
984,654
985,660
986,698
987,609
988,694
989,720
990,814
991,834
992,739
993,794
994,906
995,706
996,602
997,596
998,743
999,805
1000,821
