exposure,2000.0ms
wavelength
340,0
341,0
342,0
343,0
344,0
345,0
346,0
347,0
348,169
349,173
350,0
351,0
352,0
353,0
354,0
355,6
356,179
357,0
358,19
359,0
360,10
361,0
362,0
363,0
364,30
365,0
366,0
367,0
368,0
369,0
370,0
371,0
372,0
373,0
374,96
375,0
376,0
377,88
378,0
379,0
380,0
381,0
382,0
383,0
384,8
385,19
386,0
387,0
388,0
389,23
390,0
391,0
392,41
393,0
394,0
395,0
396,0
397,16
398,0
399,0
400,0
401,0
402,0
403,3
404,0
405,0
406,0
407,0
408,0
409,0
410,0
411,0
412,0
413,0
414,0
415,0
416,15
417,0
418,18
419,0
420,0
421,0
422,14
423,40
424,27
425,0
426,39
427,0
428,0
429,0
430,0
431,31
432,0
433,0
434,0
435,0
436,0
437,0
438,0
439,0
440,6
441,0
442,0
443,0
444,0
445,0
446,0
447,0
448,0
449,0
450,0
451,0
452,2
453,23
454,84
455,15
456,0
457,0
458,0
459,0
460,0
461,0
462,0
463,0
464,0
465,0
466,0
467,0
468,0
469,0
470,0
471,0
472,0
473,0
474,0
475,0
476,0
477,0
478,0
479,0
480,0
481,0
482,0
483,0
484,0
485,0
486,0
487,0
488,0
489,0
490,0
491,0
492,0
493,0
494,0
495,0
496,0
497,0
498,35
499,0
500,0
501,0
502,0
503,0
504,0
505,0
506,0
507,0
508,0
509,0
510,0
511,0
512,0
513,43
514,0
515,0
516,0
517,0
518,0
519,0
520,0
521,4
522,0
523,0
524,0
525,0
526,0
527,0
528,0
529,0
530,0
531,0
532,0
533,0
534,0
535,0
536,0
537,0
538,0
539,0
540,0
541,0
542,0
543,0
544,0
545,0
546,4
547,0
548,0
549,0
550,0
551,0
552,0
553,0
554,0
555,0
556,0
557,0
558,0
559,0
560,0
561,2
562,3
563,0
564,0
565,0
566,0
567,0
568,0
569,0
570,0
571,0
572,0
573,0
574,0
575,0
576,0
577,0
578,0
579,0
580,0
581,0
582,0
583,0
584,9
585,70
586,64
587,0
588,18
589,35
590,0
591,17
592,0
593,0
594,0
595,0
596,16
597,0
598,11
599,0
600,0
601,0
602,0
603,0
604,41
605,0
606,34
607,0
608,0
609,61
610,88
611,27
612,70
613,0
614,16
615,72
616,73
617,0
618,53
619,12
620,49
621,29
622,40
623,49
624,40
625,15
626,1
627,0
628,35
629,40
630,26
631,0
632,47
633,25
634,0
635,65
636,92
637,97
638,32
639,38
640,12
641,0
642,30
643,60
644,48
645,65
646,66
647,44
648,0
649,30
650,38
651,64
652,0
653,0
654,39
655,75
656,46
657,86
658,79
659,97
660,20
661,4
662,57
663,55
664,83
665,43
666,85
667,44
668,66
669,69
670,49
671,30
672,60
673,53
674,78
675,49
676,68
677,89
678,0
679,98
680,156
681,117
682,66
683,134
684,79
685,38
686,114
687,135
688,131
689,168
690,77
691,120
692,123
693,130
694,107
695,108
696,56
697,147
698,140
699,137
700,158
701,247
702,253
703,253
704,242
705,248
706,224
707,326
708,298
709,275
710,294
711,268
712,253
713,374
714,327
715,307
716,388
717,288
718,364
719,402
720,331
721,329
722,369
723,366
724,425
725,446
726,381
727,424
728,449
729,387
730,478
731,420
732,415
733,423
734,383
735,433
736,396
737,394
738,414
739,409
740,430
741,433
742,407
743,436
744,403
745,384
746,374
747,465
748,451
749,498
750,467
751,470
752,511
753,497
754,523
755,516
756,546
757,445
758,433
759,459
760,477
761,469
762,594
763,512
764,626
765,509
766,537
767,519
768,520
769,544
770,565
771,579
772,681
773,700
774,642
775,593
776,612
777,619
778,635
779,624
780,703
781,828
782,620
783,666
784,725
785,795
786,736
787,607
788,567
789,561
790,619
791,711
792,703
793,709
794,748
795,750
796,780
797,729
798,771
799,789
800,769
801,801
802,705
803,712
804,799
805,891
806,812
807,787
808,808
809,766
810,841
811,842
812,857
813,857
814,864
815,816
816,805
817,806
818,810
819,741
820,833
821,845
822,884
823,792
824,693
825,812
826,646
827,706
828,811
829,818
830,829
831,831
832,768
833,754
834,793
835,729
836,727
837,798
838,760
839,863
840,770
841,808
842,798
843,855
844,710
845,765
846,798
847,897
848,850
849,810
850,919
851,841
852,876
853,1022
854,892
855,988
856,1049
857,824
858,864
859,966
860,868
861,918
862,913
863,901
864,999
865,901
866,977
867,922
868,971
869,913
870,960
871,929
872,833
873,793
874,875
875,1007
876,951
877,1031
878,869
879,1074
880,1013
881,969
882,1096
883,969
884,888
885,945
886,978
887,1038
888,945
889,1127
890,985
891,1059
892,1167
893,1194
894,1064
895,943
896,1112
897,990
898,1237
899,1269
900,1054
901,1184
902,1163
903,1117
904,1084
905,1186
906,1032
907,1129
908,1420
909,1165
910,1373
911,1187
912,1044
913,1197
914,1367
915,1128
916,1274
917,1188
918,1383
919,1106
920,1043
921,1314
922,1226
923,1200
924,1234
925,1419
926,1414
927,1406
928,1434
929,1335
930,1401
931,1530
932,1353
933,1480
934,1624
935,1662
936,1655
937,1676
938,1856
939,1567
940,1369
941,1592
942,1554
943,1485
944,1597
945,1620
946,1613
947,1854
948,1890
949,1894
950,1771
951,1810
952,1807
953,1692
954,1840
955,2006
956,1908
957,1742
958,1940
959,2245
960,2102
961,2131
962,2218
963,2200
964,2296
965,2166
966,1897
967,1823
968,1908
969,2039
970,2190
971,2241
972,2244
973,2464
974,2195
975,2117
976,1976
977,2140
978,2505
979,2491
980,2336
981,2468
982,2433
983,2433
984,2235
985,2367
986,2440
987,2515
988,2514
989,2520
990,2818
991,2813
992,2642
993,2843
994,3150
995,2815
996,2737
997,2604
998,2902
999,2955
1000,3167
