exposure,2000.0ms
wavelength
340,6
341,0
342,0
343,0
344,0
345,0
346,47
347,0
348,0
349,89
350,0
351,0
352,0
353,0
354,0
355,17
356,140
357,14
358,36
359,0
360,116
361,27
362,0
363,0
364,68
365,0
366,5
367,0
368,0
369,0
370,56
371,0
372,0
373,63
374,57
375,0
376,4
377,89
378,0
379,0
380,0
381,0
382,0
383,39
384,46
385,29
386,0
387,30
388,34
389,11
390,0
391,0
392,46
393,47
394,68
395,30
396,0
397,17
398,0
399,0
400,0
401,27
402,56
403,41
404,17
405,20
406,0
407,0
408,0
409,0
410,39
411,0
412,0
413,0
414,5
415,7
416,52
417,18
418,0
419,0
420,35
421,0
422,48
423,41
424,57
425,43
426,56
427,13
428,0
429,22
430,2
431,53
432,15
433,17
434,0
435,1
436,0
437,0
438,0
439,16
440,0
441,0
442,0
443,8
444,0
445,27
446,16
447,0
448,0
449,13
450,13
451,18
452,59
453,64
454,55
455,12
456,0
457,27
458,37
459,69
460,0
461,0
462,50
463,31
464,55
465,0
466,0
467,0
468,19
469,0
470,21
471,0
472,6
473,10
474,0
475,0
476,0
477,0
478,0
479,19
480,77
481,26
482,10
483,12
484,0
485,27
486,0
487,1
488,0
489,0
490,24
491,20
492,0
493,30
494,31
495,0
496,31
497,0
498,52
499,0
500,17
501,31
502,22
503,2
504,14
505,38
506,21
507,0
508,45
509,22
510,70
511,68
512,58
513,72
514,39
515,0
516,26
517,34
518,21
519,33
520,66
521,62
522,0
523,12
524,0
525,0
526,49
527,15
528,20
529,0
530,0
531,41
532,60
533,35
534,69
535,50
536,0
537,8
538,17
539,60
540,43
541,60
542,23
543,38
544,18
545,61
546,59
547,54
548,45
549,29
550,0
551,0
552,2
553,12
554,46
555,47
556,60
557,46
558,56
559,37
560,0
561,47
562,55
563,37
564,0
565,29
566,0
567,43
568,15
569,18
570,25
571,43
572,0
573,6
574,8
575,78
576,11
577,26
578,25
579,48
580,36
581,20
582,24
583,0
584,32
585,130
586,81
587,64
588,66
589,61
590,20
591,33
592,23
593,6
594,8
595,12
596,42
597,15
598,41
599,0
600,45
601,43
602,62
603,19
604,34
605,0
606,30
607,38
608,0
609,38
610,61
611,64
612,55
613,4
614,27
615,55
616,56
617,0
618,76
619,50
620,62
621,50
622,23
623,42
624,29
625,26
626,35
627,32
628,81
629,50
630,21
631,10
632,61
633,27
634,34
635,63
636,49
637,73
638,50
639,51
640,45
641,47
642,35
643,38
644,54
645,62
646,47
647,51
648,17
649,28
650,39
651,45
652,20
653,27
654,28
655,53
656,48
657,92
658,73
659,58
660,26
661,27
662,67
663,55
664,62
665,15
666,46
667,23
668,32
669,72
670,53
671,43
672,41
673,28
674,45
675,44
676,51
677,59
678,4
679,57
680,66
681,58
682,40
683,66
684,14
685,22
686,76
687,46
688,46
689,57
690,50
691,85
692,89
693,83
694,83
695,104
696,54
697,102
698,121
699,131
700,199
701,214
702,249
703,291
704,305
705,356
706,386
707,474
708,473
709,508
710,574
711,556
712,636
713,710
714,770
715,799
716,902
717,892
718,948
719,1048
720,1057
721,1091
722,1187
723,1226
724,1270
725,1330
726,1384
727,1439
728,1456
729,1502
730,1551
731,1564
732,1615
733,1647
734,1655
735,1721
736,1729
737,1772
738,1772
739,1789
740,1828
741,1840
742,1868
743,1889
744,1887
745,1898
746,1892
747,1988
748,1985
749,2030
750,2037
751,2056
752,2065
753,2068
754,2088
755,2102
756,2112
757,2059
758,2109
759,2083
760,2124
761,2135
762,2227
763,2191
764,2187
765,2208
766,2258
767,2258
768,2258
769,2286
770,2290
771,2308
772,2348
773,2301
774,2269
775,2267
776,2265
777,2260
778,2313
779,2269
780,2253
781,2340
782,2249
783,2248
784,2297
785,2296
786,2238
787,2202
788,2201
789,2175
790,2166
791,2249
792,2317
793,2314
794,2234
795,2266
796,2325
797,2296
798,2285
799,2265
800,2267
801,2336
802,2272
803,2300
804,2330
805,2355
806,2316
807,2349
808,2332
809,2338
810,2359
811,2307
812,2321
813,2290
814,2367
815,2296
816,2246
817,2222
818,2200
819,2162
820,2183
821,2201
822,2146
823,2070
824,2111
825,2121
826,1984
827,1998
828,2057
829,2025
830,1988
831,1996
832,1898
833,1892
834,1947
835,1883
836,1889
837,1892
838,1828
839,1881
840,1832
841,1856
842,1824
843,1836
844,1724
845,1747
846,1793
847,1839
848,1763
849,1734
850,1725
851,1719
852,1707
853,1742
854,1681
855,1708
856,1670
857,1620
858,1571
859,1560
860,1538
861,1574
862,1498
863,1505
864,1516
865,1414
866,1407
867,1367
868,1340
869,1339
870,1320
871,1241
872,1143
873,1178
874,1155
875,1158
876,1138
877,1135
878,1114
879,1113
880,1057
881,1035
882,1066
883,1026
884,976
885,968
886,918
887,944
888,888
889,910
890,888
891,871
892,813
893,792
894,767
895,722
896,742
897,687
898,768
899,761
900,662
901,710
902,676
903,655
904,632
905,682
906,646
907,624
908,748
909,605
910,729
911,629
912,661
913,727
914,706
915,636
916,664
917,641
918,808
919,716
920,655
921,829
922,772
923,782
924,652
925,783
926,851
927,740
928,734
929,669
930,693
931,790
932,693
933,794
934,900
935,832
936,752
937,891
938,943
939,858
940,669
941,680
942,649
943,697
944,676
945,732
946,664
947,712
948,737
949,708
950,711
951,724
952,678
953,629
954,638
955,670
956,684
957,568
958,483
959,689
960,631
961,600
962,610
963,624
964,669
965,522
966,472
967,443
968,492
969,502
970,468
971,566
972,585
973,717
974,463
975,479
976,444
977,457
978,619
979,546
980,427
981,535
982,665
983,630
984,499
985,532
986,553
987,446
988,591
989,487
990,637
991,708
992,614
993,662
994,820
995,606
996,482
997,512
998,605
999,551
1000,573
