exposure,2000.0ms
wavelength
340,2
341,0
342,0
343,12
344,0
345,33
346,0
347,0
348,122
349,236
350,0
351,0
352,0
353,24
354,0
355,175
356,181
357,70
358,157
359,11
360,85
361,48
362,0
363,0
364,0
365,15
366,78
367,0
368,0
369,0
370,82
371,0
372,32
373,100
374,96
375,0
376,38
377,85
378,11
379,0
380,0
381,0
382,0
383,32
384,54
385,57
386,0
387,56
388,51
389,29
390,0
391,14
392,41
393,57
394,52
395,35
396,23
397,16
398,0
399,0
400,0
401,7
402,10
403,32
404,1
405,22
406,0
407,0
408,0
409,33
410,59
411,0
412,4
413,0
414,0
415,0
416,33
417,30
418,13
419,0
420,38
421,4
422,65
423,75
424,54
425,24
426,52
427,15
428,0
429,8
430,12
431,51
432,29
433,0
434,0
435,0
436,0
437,3
438,0
439,35
440,0
441,12
442,0
443,18
444,26
445,53
446,14
447,11
448,9
449,29
450,50
451,66
452,61
453,83
454,68
455,36
456,0
457,18
458,36
459,66
460,40
461,0
462,29
463,34
464,56
465,37
466,5
467,0
468,14
469,8
470,26
471,0
472,25
473,19
474,0
475,0
476,0
477,0
478,12
479,0
480,56
481,21
482,8
483,5
484,0
485,38
486,7
487,0
488,0
489,0
490,45
491,28
492,19
493,35
494,29
495,9
496,19
497,4
498,53
499,3
500,21
501,47
502,37
503,0
504,10
505,25
506,16
507,0
508,11
509,12
510,35
511,29
512,66
513,126
514,68
515,16
516,9
517,27
518,56
519,24
520,58
521,62
522,0
523,4
524,15
525,0
526,81
527,32
528,0
529,1
530,22
531,43
532,32
533,45
534,49
535,43
536,26
537,26
538,27
539,73
540,38
541,57
542,56
543,43
544,55
545,110
546,71
547,72
548,76
549,57
550,33
551,33
552,41
553,46
554,67
555,49
556,84
557,56
558,54
559,61
560,6
561,39
562,77
563,66
564,20
565,12
566,5
567,39
568,19
569,12
570,59
571,59
572,7
573,14
574,21
575,81
576,40
577,66
578,50
579,55
580,39
581,39
582,49
583,14
584,65
585,149
586,94
587,64
588,110
589,68
590,15
591,66
592,53
593,0
594,10
595,38
596,57
597,32
598,56
599,18
600,61
601,42
602,34
603,52
604,63
605,33
606,54
607,59
608,25
609,66
610,72
611,73
612,89
613,43
614,62
615,60
616,103
617,36
618,86
619,50
620,54
621,69
622,68
623,58
624,81
625,68
626,56
627,43
628,76
629,75
630,49
631,26
632,68
633,60
634,53
635,65
636,71
637,90
638,58
639,62
640,47
641,44
642,61
643,62
644,71
645,85
646,49
647,61
648,22
649,39
650,45
651,70
652,34
653,32
654,45
655,66
656,44
657,89
658,83
659,90
660,40
661,36
662,64
663,69
664,60
665,39
666,91
667,56
668,67
669,64
670,63
671,47
672,65
673,65
674,63
675,74
676,64
677,76
678,18
679,80
680,107
681,75
682,75
683,99
684,56
685,63
686,90
687,78
688,70
689,82
690,45
691,94
692,96
693,132
694,101
695,141
696,78
697,105
698,132
699,139
700,186
701,226
702,255
703,298
704,344
705,421
706,449
707,540
708,555
709,574
710,632
711,644
712,749
713,865
714,905
715,948
716,1063
717,1100
718,1190
719,1314
720,1355
721,1439
722,1540
723,1668
724,1737
725,1827
726,1920
727,2015
728,2047
729,2134
730,2218
731,2304
732,2327
733,2423
734,2478
735,2565
736,2599
737,2693
738,2691
739,2773
740,2824
741,2845
742,2881
743,2927
744,2932
745,2990
746,2991
747,3076
748,3082
749,3140
750,3163
751,3248
752,3264
753,3238
754,3288
755,3309
756,3313
757,3282
758,3314
759,3317
760,3361
761,3370
762,3466
763,3435
764,3476
765,3476
766,3549
767,3565
768,3562
769,3625
770,3589
771,3614
772,3671
773,3657
774,3570
775,3561
776,3626
777,3567
778,3566
779,3526
780,3619
781,3629
782,3513
783,3544
784,3586
785,3564
786,3568
787,3512
788,3452
789,3471
790,3505
791,3502
792,3564
793,3573
794,3563
795,3584
796,3615
797,3527
798,3565
799,3610
800,3621
801,3666
802,3639
803,3601
804,3688
805,3767
806,3681
807,3690
808,3657
809,3610
810,3637
811,3647
812,3549
813,3606
814,3664
815,3529
816,3463
817,3399
818,3453
819,3412
820,3421
821,3362
822,3381
823,3303
824,3272
825,3228
826,3154
827,3085
828,3131
829,3117
830,3037
831,3040
832,2912
833,2863
834,2888
835,2865
836,2828
837,2824
838,2733
839,2753
840,2703
841,2740
842,2683
843,2717
844,2596
845,2614
846,2660
847,2650
848,2523
849,2517
850,2536
851,2491
852,2491
853,2488
854,2453
855,2442
856,2391
857,2296
858,2309
859,2249
860,2207
861,2275
862,2167
863,2103
864,2118
865,2073
866,2013
867,1959
868,1898
869,1868
870,1863
871,1771
872,1638
873,1663
874,1683
875,1682
876,1624
877,1563
878,1525
879,1524
880,1476
881,1429
882,1462
883,1448
884,1338
885,1318
886,1247
887,1266
888,1197
889,1228
890,1155
891,1152
892,1149
893,1106
894,1013
895,950
896,1026
897,964
898,1077
899,1021
900,865
901,975
902,982
903,887
904,862
905,881
906,808
907,816
908,978
909,805
910,952
911,844
912,830
913,899
914,966
915,845
916,871
917,883
918,1005
919,889
920,830
921,922
922,937
923,967
924,880
925,942
926,931
927,938
928,958
929,857
930,854
931,937
932,861
933,916
934,1026
935,1010
936,946
937,1014
938,1052
939,917
940,761
941,873
942,768
943,826
944,773
945,843
946,709
947,777
948,774
949,778
950,770
951,722
952,751
953,694
954,712
955,684
956,686
957,628
958,589
959,711
960,636
961,562
962,609
963,577
964,695
965,596
966,548
967,520
968,499
969,519
970,536
971,545
972,577
973,756
974,627
975,476
976,582
977,454
978,557
979,580
980,513
981,579
982,751
983,626
984,510
985,587
986,535
987,456
988,536
989,502
990,657
991,730
992,702
993,752
994,817
995,600
996,567
997,576
998,757
999,743
1000,871
